电压/V	功率/mW	VT/uWb	Iset	开关状态	ILr
4.670	37.778	2.311	0.200	0.000	0.020
5.840	56.911	2.883	0.250	0.000	0.023
7.000	79.762	5.683	0.300	0.000	0.019
8.170	105.107	6.015	0.350	0.000	0.020
9.320	132.110	6.295	0.400	0.000	0.018
10.510	159.743	6.551	0.450	0.000	0.024
11.670	188.307	6.557	0.500	0.000	0.020
12.850	216.716	6.558	0.550	0.000	0.017
14.030	247.381	6.560	0.600	0.000	0.018
15.230	279.534	6.561	0.650	0.000	0.018
16.400	310.575	6.563	0.700	0.000	0.021
17.580	342.922	6.565	0.750	0.000	0.018
18.730	377.082	6.567	0.800	0.000	0.019
19.920	413.699	6.568	0.850	0.000	0.021
21.090	450.999	6.570	0.900	0.000	0.019
22.240	488.556	6.572	0.950	0.000	0.019
23.420	528.085	6.573	1.000	0.000	0.019
24.610	567.797	6.575	1.050	0.000	0.019
25.790	613.866	6.576	1.100	0.000	0.018
26.960	657.137	6.577	1.150	0.000	0.021
28.140	703.683	6.578	1.200	0.000	0.020
29.340	753.237	6.579	1.250	0.000	0.022
30.500	802.467	6.580	1.300	0.000	0.025
31.660	854.688	6.581	1.350	0.000	0.020
32.850	908.368	6.582	1.400	0.000	0.021
34.030	965.176	6.582	1.450	0.000	0.023
35.200	1021.490	6.582	1.500	0.000	0.018
36.350	1080.580	6.583	1.550	0.000	0.022
37.550	1141.126	6.583	1.600	0.000	0.022
38.730	1204.026	6.583	1.650	0.000	0.017
39.890	1267.524	6.584	1.700	0.000	0.016
41.070	1334.960	6.584	1.750	0.000	0.022
42.240	1402.009	6.584	1.800	0.000	0.017
43.420	1473.610	6.585	1.850	0.000	0.021
44.600	1543.936	6.585	1.900	0.000	0.024
45.780	1618.464	6.585	1.950	0.000	0.022
46.950	1693.828	6.586	2.000	0.000	0.017
48.140	1772.491	6.586	2.050	0.000	0.017
49.300	1852.796	6.586	2.100	0.000	0.016
50.500	1935.479	6.587	2.150	0.000	0.020
51.680	2020.138	6.587	2.200	0.000	0.021
52.860	2108.055	6.587	2.250	0.000	0.020
54.040	2195.781	6.588	2.300	0.000	0.014
55.230	2288.697	6.588	2.350	0.000	0.020
56.390	2379.425	6.589	2.400	0.000	0.023
57.570	2473.861	6.589	2.450	0.000	0.020
58.750	2569.931	6.590	2.500	0.000	0.020
59.930	2670.699	6.592	2.550	0.000	0.023
61.100	2772.045	6.593	2.600	0.000	0.019
62.290	2876.327	6.595	2.650	0.000	0.014
63.480	2983.609	6.597	2.700	0.000	0.015
64.640	3090.354	6.599	2.750	0.000	0.024
65.830	3203.189	6.601	2.800	0.000	0.020
67.020	3316.094	6.603	2.850	0.000	0.019
68.190	3431.870	6.605	2.900	0.000	0.020
69.380	3550.231	6.607	2.950	0.000	0.018
70.540	3668.346	6.609	3.000	0.000	0.021
71.730	3791.363	6.611	3.050	0.000	0.022
72.900	3915.893	6.613	3.100	0.000	0.021
74.080	4040.078	6.615	3.150	0.000	0.023
75.270	4169.344	6.617	3.200	0.000	0.022
0.000	0.000	0.000	0.000	0.000	0.000
