电压/V	功率/mW	VT/uWb	Iset	开关状态	ILr
1.85	13.545	0.915	0.2	1	0.021
2.29	32.836	1.126	0.4	2	0.028
2.54	24.333	1.264	0.133	0	0.021
2.31	19.708	1.136	0.25	1	0.025
2.87	53.071	1.407	0.5	2	0.024
3.19	32.442	1.573	0.167	0	0.025
2.77	26.796	1.368	0.3	1	0.024
3.45	78.204	1.689	0.6	2	0.028
3.82	40.693	1.883	0.2	0	0.027
3.24	34.937	1.591	0.35	1	0.026
4.03	108.266	1.968	0.7	2	0.027
4.45	49.351	2.188	0.233	0	0.021
3.7	44.057	1.812	0.4	1	0.03
4.6	143.246	2.245	0.8	2	0.028
5.1	58.748	2.502	0.267	0	0.025
4.16	54.296	2.039	0.45	1	0.028
5.19	183.096	2.529	0.9	2	0.025
5.73	68.392	2.812	0.3	0	0.028
4.64	65.746	2.264	0.5	1	0.024
5.77	227.64	2.803	1	2	0.028
6.37	78.665	3.126	0.333	0	0.029
5.1	78.286	2.49	0.55	1	0.027
6.35	276.941	5.545	1.1	2	0.025
7	89.34	3.437	0.367	0	0.026
5.57	92.02	2.719	0.6	1	0.025
6.92	330.578	5.681	1.2	2	0.026
7.63	100.534	5.835	0.4	0	0.026
6.04	107.018	2.95	0.65	1	0.031
7.51	388.454	5.824	1.3	2	0.025
8.29	112.781	6.032	0.433	0	0.018
6.52	123.227	3.186	0.7	1	0.024
8.09	450.511	5.964	1.4	2	0.027
8.92	125.239	6.189	0.467	0	0.027
6.97	140.582	3.406	0.75	1	0.028
8.67	516.527	6.103	1.5	2	0.028
9.56	138.349	6.348	0.5	0	0.029
7.44	159.235	3.633	0.8	1	0.027
9.25	586.335	6.24	1.6	2	0.024
10.21	152.29	6.501	0.533	0	0.021
7.91	179.123	3.865	0.85	1	0.024
9.82	660.542	6.376	1.7	2	0.025
10.85	166.705	6.555	0.567	0	0.025
8.38	200.309	6.044	0.9	1	0.025
10.41	738.706	6.518	1.8	2	0.026
11.49	181.686	6.558	0.6	0	0.027
8.84	222.679	6.159	0.95	1	0.025
10.99	821.146	6.573	1.9	2	0.024
12.14	197.376	6.558	0.633	0	0.022
9.31	246.421	6.269	1	1	0.022
11.58	908.261	6.577	2	2	0.024
12.78	213.728	6.559	0.667	0	0.027
9.77	271.456	6.381	1.05	1	0.025
12.16	1000.126	6.577	2.1	2	0.027
13.44	230.924	6.561	0.7	0	0.025
10.24	297.8	6.495	1.1	1	0.032
12.73	1097.056	6.578	2.2	2	0.025
14.07	248.288	6.562	0.733	0	0.027
10.71	325.344	6.568	1.15	1	0.027
13.32	1198.764	6.578	2.3	2	0.023
14.69	266.218	6.563	0.767	0	0.028
11.18	354.275	6.571	1.2	1	0.027
13.91	1305.636	6.579	2.4	2	0.023
15.35	285.404	6.565	0.8	0	0.03
11.65	384.462	6.572	1.25	1	0.027
14.49	1417.106	6.579	2.5	2	0.023
15.99	304.906	6.566	0.833	0	0.028
12.12	415.993	6.573	1.3	1	0.027
15.07	1533.233	6.58	2.6	2	0.027
16.63	325.293	6.567	0.867	0	0.028
12.58	448.855	6.573	1.35	1	0.031
15.65	1653.864	6.58	2.7	2	0.03
17.26	346.173	6.568	0.9	0	0.032
13.04	482.992	6.574	1.4	1	0.031
16.23	1778.333	6.581	2.8	2	0.03
17.9	367.601	6.57	0.933	0	0.034
13.52	518.425	6.575	1.45	1	0.027
16.82	1906.922	6.581	2.9	2	0.032
18.54	390.238	6.571	0.967	0	0.034
13.99	555.24	6.575	1.5	1	0.029
17.4	2039.413	6.581	3	2	0.03
19.18	413.25	6.572	1	0	0.031
14.45	593.41	6.576	1.55	1	0.033
17.97	2175.591	6.582	3.1	2	0.03
19.83	437.071	6.573	1.033	0	0.03
14.92	632.926	6.576	1.6	1	0.032
18.55	2315.721	6.582	3.2	2	0.029
20.47	461.799	6.574	1.067	0	0.028
15.39	673.801	6.577	1.65	1	0.024
19.14	2459.604	6.582	3.3	2	0.026
21.12	486.995	6.575	1.1	0	0.03
15.85	715.976	6.577	1.7	1	0.031
19.72	2608.001	6.582	3.4	2	0.029
21.74	512.481	6.576	1.133	0	0.027
16.32	759.649	6.578	1.75	1	0.028
20.3	2760.638	6.582	3.5	2	0.028
22.39	539.529	6.577	1.167	0	0.028
16.79	804.657	6.578	1.8	1	0.029
20.89	2918.371	6.582	3.6	2	0.028
23.03	566.724	6.578	1.2	0	0.028
17.25	851.068	6.578	1.85	1	0.026
21.46	3080.804	6.583	3.7	2	0.026
23.68	594.736	6.578	1.233	0	0.025
17.71	898.89	6.579	1.9	1	0.027
22.05	3248.378	6.583	3.8	2	0.024
24.33	624.096	6.579	1.267	0	0.026
18.19	947.999	6.579	1.95	1	0.028
22.64	3421.77	6.583	3.9	2	0.027
24.97	653.57	6.579	1.3	0	0.026
18.65	998.537	6.579	2	1	0.029
23.22	3600.288	6.583	4	2	0.029
25.61	683.691	6.58	1.333	0	0.027
19.13	1050.607	6.58	2.05	1	0.024
23.8	3785.22	6.583	4.1	2	0.026
26.25	714.834	6.58	1.367	0	0.027
19.59	1104.03	6.58	2.1	1	0.025
24.38	3975.985	6.583	4.2	2	0.025
26.89	746.177	6.581	1.4	0	0.025
20.07	1158.964	6.58	2.15	1	0.028
24.97	4171.494	6.583	4.3	2	0.021
27.54	778.683	6.581	1.433	0	0.027
20.53	1215.26	6.58	2.2	1	0.027
25.55	4372.504	6.583	4.4	2	0.031
28.18	812.11	6.581	1.467	0	0.022
21	1273.094	6.58	2.25	1	0.027
26.14	4578.362	6.584	4.5	2	0.03
28.82	845.608	6.582	1.5	0	0.023
21.47	1332.375	6.581	2.3	1	0.021
26.71	4788.161	6.584	4.6	2	0.023
29.45	880.006	6.582	1.533	0	0.026
21.95	1392.896	6.581	2.35	1	0.025
27.3	5000.863	6.584	4.7	2	0.026
30.09	915.785	6.582	1.567	0	0.023
22.41	1454.774	6.581	2.4	1	0.028
27.89	5215.251	6.584	4.8	2	0.027
30.73	951.533	6.582	1.6	0	0.027
22.88	1518.114	6.581	2.45	1	0.025
28.47	5432.898	6.584	4.9	2	0.03
31.38	988.303	6.583	1.633	0	0.024
23.36	1582.833	6.582	2.5	1	0.024
29.05	5649.409	6.584	5	2	0.024
32.01	1026.266	6.583	1.667	0	0.025
0	0	0	0	0	0
